#Acq. time (s)=	0.15
#Accumulations=	20
#Range (nm)=	454...467
#Windows=	2
#Auto scanning=	Off
#Autofocus=	Off
#AutoExposure=	Off
#Spike filter=	Off
#Delay time (s)=	0
#Binning=	1
#Readout mode=	Signal
#DeNoise=	Off
#ICS correction=	Off
#Dark correction=	Off
#Inst. Process=	Off
#Detector temperature (°C)=	-75.38
#Instrument=	OSD
#Detector=	Synapse
#Grating=	2400
#Front entrance slit=	20
#Exit mirror=	Side
#Full time(mm:ss)=	4:00
#Project=	
#Sample=	
#Site=	
#Title=	W_Ar_DC_3Pa_1493W_439V_3_4A
#Remark=	
#Date=	10.12.2019 10:16
#Acquired=	10.12.2019 10:16:02
454.002	629.1
454.006	634.3
454.01	640.1
454.015	631
454.019	624
454.024	620.2
454.028	617.9
454.032	617.1
454.037	616.1
454.041	616.9
454.046	617
454.05	617.7
454.054	620.5
454.059	623.9
454.063	624.3
454.067	620.5
454.072	620
454.076	619.5
454.081	621.1
454.085	619.5
454.089	621.9
454.094	624.8
454.098	626.5
454.103	624.7
454.107	623.1
454.111	623.7
454.116	621.6
454.12	624.2
454.125	630.2
454.129	631.6
454.133	630.7
454.138	638.7
454.142	649.7
454.147	648.8
454.151	642.2
454.155	636.2
454.16	630.3
454.164	627.8
454.168	625.9
454.173	625
454.177	624.4
454.182	623.5
454.186	623.7
454.19	626.4
454.195	627.2
454.199	629.2
454.204	641.7
454.208	663.7
454.212	702.9
454.217	771.3
454.221	860.6
454.226	902.7
454.23	879.8
454.234	819.9
454.239	714.4
454.243	661.2
454.247	663.6
454.252	734.9
454.256	933.4
454.261	1162.5
454.265	1117.2
454.269	915.4
454.274	984.4
454.278	1593.6
454.283	2467.4
454.287	2470.3
454.291	1548.2
454.296	944.1
454.3	807.4
454.305	773.3
454.309	705.6
454.313	672.2
454.318	705.6
454.322	725.4
454.326	685.5
454.331	645.5
454.335	635.3
454.34	635.9
454.344	637.3
454.348	636.3
454.353	637.2
454.357	644.9
454.362	667.9
454.366	717.3
454.37	764.3
454.375	744.3
454.379	726.2
454.384	813.7
454.388	979.6
454.392	1005.8
454.397	853.6
454.401	732
454.405	718.7
454.41	740.3
454.414	806.3
454.419	971.2
454.423	1371.3
454.427	2748.3
454.432	8796
454.436	23709.7
454.441	29673.7
454.445	15366.4
454.449	3962.6
454.454	1296
454.458	860.9
454.462	755.4
454.467	716.3
454.471	706.1
454.476	720.5
454.48	763.5
454.484	784.6
454.489	746.3
454.493	690.7
454.498	668.2
454.502	667.6
454.506	652
454.511	637.7
454.515	631.5
454.52	633.5
454.524	643.4
454.528	650.7
454.533	655.1
454.537	666.1
454.541	665.2
454.546	658.4
454.55	645.8
454.555	635.4
454.559	635.4
454.563	623.9
454.568	740.4
454.572	1070.7
454.577	2043.6
454.581	3198.7
454.585	2882.8
454.59	1548.5
454.594	841.4
454.598	665.5
454.603	630.1
454.607	624.8
454.612	626.4
454.616	628.2
454.62	625.7
454.625	620.4
454.629	615.1
454.634	615.8
454.638	615.4
454.642	615.1
454.647	615.6
454.651	615.8
454.655	614.9
454.66	615.3
454.664	617.2
454.669	622.5
454.673	631.6
454.677	649.6
454.682	672.3
454.686	662
454.691	636.1
454.695	627.7
454.699	647.5
454.704	725.2
454.708	831.7
454.712	807.3
454.717	681
454.721	641.1
454.726	649
454.73	647.3
454.734	632.4
454.739	619.8
454.743	612.8
454.748	611.2
454.752	611.6
454.756	611.9
454.761	611
454.765	612
454.769	611.1
454.774	611.4
454.778	613.2
454.783	611.9
454.787	613.6
454.791	615.1
454.796	620.3
454.8	627.4
454.805	628.9
454.809	627.3
454.813	627.4
454.818	626.5
454.822	623.7
454.826	624.9
454.831	627.6
454.835	625.3
454.84	618.6
454.844	614.5
454.848	612.5
454.853	611.1
454.857	613.3
454.862	612.6
454.866	613.8
454.87	616.8
454.875	624.4
454.879	638.6
454.883	668
454.888	679.1
454.892	653.8
454.897	627.5
454.901	615.4
454.905	612.9
454.91	612.8
454.914	613.6
454.919	615.9
454.923	618.9
454.927	616
454.932	614.3
454.936	613.6
454.94	613.9
454.945	614.2
454.949	614.1
454.954	623.6
454.958	649
454.962	695.3
454.967	704.3
454.971	660.8
454.975	630.3
454.98	622.9
454.984	627.3
454.989	643.7
454.993	650.4
454.997	636.4
455.002	622.2
455.006	616.6
455.011	615
455.015	614.9
455.019	617.6
455.024	628.4
455.028	645.4
455.032	665.3
455.037	657.5
455.041	639.1
455.046	622.6
455.05	621.5
455.054	619.6
455.059	624.6
455.063	625.8
455.067	624.3
455.072	620.9
455.076	618.8
455.081	623.1
455.085	630.8
455.089	641.8
455.094	657.6
455.098	713.8
455.103	915.1
455.107	1499.8
455.111	3073.8
455.116	5181.4
455.12	5020.9
455.124	2645.6
455.129	1143
455.133	732.6
455.138	657.2
455.142	657.9
455.146	656.3
455.151	639.9
455.155	624.8
455.159	622.8
455.164	629.6
455.168	647.3
455.173	713.2
455.177	964.9
455.181	1584.6
455.186	1975
455.19	1494.9
455.194	886.3
455.199	672.1
455.203	626.1
455.208	617
455.212	614.7
455.216	614.3
455.221	613.6
455.225	611
455.23	614.1
455.234	613.2
455.238	612.8
455.243	618.7
455.247	634.8
455.251	668.5
455.256	685.5
455.26	663.6
455.265	644.2
455.269	635.3
455.273	630.1
455.278	625.3
455.282	618.6
455.286	630.2
455.291	673.3
455.295	743.9
455.3	760
455.304	691
455.308	638.1
455.313	617.5
455.317	612.4
455.321	611.5
455.326	613.7
455.33	620.3
455.335	630.4
455.339	632.9
455.343	626.9
455.348	625.2
455.352	622
455.357	620.9
455.361	626.1
455.365	627.9
455.37	623.6
455.374	614.4
455.378	614.4
455.383	616.3
455.387	627.9
455.392	658.2
455.396	691.8
455.4	692.8
455.405	659.5
455.409	626.3
455.413	618
455.418	617.4
455.422	625.4
455.427	645.9
455.431	700.6
455.435	774.1
455.44	836.4
455.444	999.1
455.448	1177.4
455.453	1076.4
455.457	853.5
455.462	791.5
455.466	784.7
455.47	707
455.475	645.1
455.479	635.8
455.483	649.7
455.488	651.1
455.492	633.5
455.497	619
455.501	612.8
455.505	611.4
455.51	612.8
455.514	610.3
455.518	611.5
455.523	614.3
455.527	615.7
455.532	615.9
455.536	612.7
455.54	615.5
455.545	624.4
455.549	655.7
455.553	687.3
455.558	671.8
455.562	634.1
455.567	620.5
455.571	620
455.575	617.7
455.58	613.7
455.584	613.6
455.588	612.4
455.593	613.2
455.597	613.5
455.602	620.6
455.606	649.2
455.61	729.2
455.615	825.3
455.619	823.8
455.623	727.8
455.628	640.4
455.632	617.2
455.637	613.1
455.641	611.8
455.645	614.3
455.65	616.3
455.654	619.3
455.658	620
455.663	629.2
455.667	668.3
455.672	705.3
455.676	679.4
455.68	633.3
455.685	613.8
455.689	610.4
455.693	609.9
455.698	612.1
455.702	621.6
455.707	640.8
455.711	665.7
455.715	661.2
455.72	632
455.724	615.9
455.728	610.7
455.733	610.4
455.737	609.8
455.742	611.5
455.746	610.3
455.75	609.8
455.755	610.8
455.759	611.3
455.763	613.1
455.768	613.1
455.772	614.7
455.777	611.5
455.781	609.6
455.785	610.4
455.79	612.2
455.794	615.4
455.798	615
455.803	613.7
455.807	612.4
455.812	618.9
455.816	638.5
455.82	717.2
455.825	903.3
455.829	1026.4
455.833	937.9
455.838	924.1
455.842	975.6
455.846	864
455.851	700.5
455.855	632.4
455.86	615.3
455.864	612
455.868	616.6
455.873	621.2
455.877	617.8
455.881	614.6
455.886	614.1
455.89	612.2
455.895	610.9
455.899	617.9
455.903	635.9
455.908	658.3
455.912	659.1
455.916	637.3
455.921	618.5
455.925	611.9
455.93	612.4
455.934	618.8
455.938	624.7
455.943	621.8
455.947	615.9
455.951	613.3
455.956	611.4
455.96	610.2
455.965	612.3
455.969	619.8
455.973	651.1
455.978	712.2
455.982	730.2
455.986	678.3
455.991	634.7
455.995	618.8
456	611
456.004	611.2
456.008	613.1
456.013	621
456.017	634.3
456.021	649.5
456.026	673.7
456.03	693.3
456.034	672.8
456.039	634.4
456.043	618.4
456.048	614.8
456.052	617.2
456.056	619
456.061	614.6
456.065	610.5
456.069	610.8
456.074	611.9
456.078	615.5
456.083	615.5
456.087	614.3
456.091	614.1
456.096	614.3
456.1	617.7
456.104	618.4
456.109	613.7
456.113	611.8
456.117	612.5
456.122	613.8
456.126	613.6
456.131	612.1
456.135	612.4
456.139	616.3
456.144	617
456.148	617.1
456.152	621
456.157	624.9
456.161	628.1
456.166	628.3
456.17	616.3
456.174	613.3
456.179	613.1
456.183	611.5
456.187	613.5
456.192	616.2
456.196	622
456.201	619.7
456.205	615.2
456.209	611.4
456.214	610.2
456.218	611.3
456.222	611.8
456.227	610.9
456.231	611.9
456.235	613.5
456.24	612.8
456.244	612.6
456.249	612.5
456.253	611.7
456.257	613.6
456.262	616.7
456.266	620.2
456.27	624.7
456.275	647.7
456.279	755.7
456.283	1122.5
456.288	1612
456.292	1561.6
456.297	1085.4
456.301	955.5
456.305	987.4
456.31	834.7
456.314	678
456.318	635.4
456.323	627.6
456.327	637.9
456.332	703.4
456.336	804.5
456.34	795.1
456.345	687.6
456.349	629.2
456.353	619.6
456.358	627.7
456.362	682.1
456.366	889.8
456.371	1085
456.375	928.4
456.38	708.9
456.384	670.5
456.388	654.4
456.393	630.4
456.397	620.1
456.401	623
456.406	623.1
456.41	617.1
456.414	614
456.419	612.6
456.423	614.2
456.428	623
456.432	632.6
456.436	635.7
456.441	634.3
456.445	650.9
456.449	694.1
456.454	762
456.458	858
456.463	882.9
456.467	771.3
456.471	666.6
456.476	636.6
456.48	631.3
456.484	620.5
456.489	618
456.493	616.7
456.497	614.4
456.502	611.6
456.506	609.3
456.511	611.1
456.515	611.5
456.519	611.6
456.524	612.1
456.528	618.2
456.532	629.9
456.537	634.5
456.541	643.9
456.545	692.4
456.55	771.8
456.554	762.4
456.559	674.5
456.563	630.6
456.567	639
456.572	706.1
456.576	798.1
456.58	799.3
456.585	729.7
456.589	673.7
456.593	647
456.598	627
456.602	616.6
456.607	612.1
456.611	610.7
456.615	611.7
456.62	613.1
456.624	612.1
456.628	614
456.633	614.4
456.637	618.1
456.641	634.4
456.646	657.9
456.65	659.3
456.655	634.6
456.659	617.4
456.663	612.4
456.668	612.2
456.672	615.2
456.676	632.3
456.681	700.1
456.685	820.5
456.689	852.4
456.694	738.8
456.698	646
456.703	618.5
456.707	612
456.711	612.7
456.716	617.1
456.72	619.6
456.724	624.7
456.729	631.1
456.733	629.2
456.737	629
456.742	633.9
456.746	631.1
456.751	624
456.755	621
456.759	618.9
456.764	631.8
456.768	673.9
456.772	697.1
456.777	673.5
456.781	660
456.785	709.8
456.79	761.3
456.794	719.7
456.799	656.2
456.803	628.4
456.807	617
456.812	616.1
456.816	618.9
456.82	618
456.825	619
456.829	626.7
456.833	632.6
456.838	627.6
456.842	616.2
456.847	617.1
456.851	619.4
456.855	616.3
456.86	613.3
456.864	611.4
456.868	609.1
456.873	610.2
456.877	611.6
456.881	619.1
456.886	646.1
456.89	675.2
456.895	666.3
456.899	636.5
456.903	620.9
456.908	621.3
456.912	624.7
456.916	623.8
456.921	620.7
456.925	617.2
456.929	615.5
456.934	625.4
456.938	632.9
456.942	626.9
456.947	616.2
456.951	614.4
456.956	632.3
456.96	680.5
456.964	740.9
456.969	728
456.973	668.3
456.977	660.5
456.982	767.9
456.986	1216.7
456.99	2113.8
456.995	2437.8
456.999	1658.8
457.004	913.8
457.008	678.5
457.012	627.7
457.017	617.2
457.021	613.7
457.025	612.9
457.03	611.6
457.034	610
457.038	611.1
457.043	611
457.047	611.2
457.051	610.8
457.056	611.2
457.06	610.3
457.065	611
457.069	610
457.073	609.7
457.078	609.5
457.082	608.6
457.086	609.1
457.091	610.7
457.095	610.4
457.099	612.6
457.104	617.2
457.108	637.9
457.112	703.3
457.117	781.3
457.121	764.5
457.126	671.8
457.13	624.6
457.134	611.7
457.139	611.7
457.143	611.4
457.147	611.7
457.152	613.6
457.156	612.5
457.16	613
457.165	620.8
457.169	644.4
457.173	667.8
457.178	659.8
457.182	635.3
457.187	621
457.191	618.3
457.195	621.5
457.2	624.7
457.204	625.3
457.208	621.6
457.213	631
457.217	645.1
457.221	640.2
457.226	628.5
457.23	625
457.234	617.9
457.239	611.6
457.243	609.2
457.248	609.3
457.252	608
457.256	608.3
457.261	608.4
457.265	609.5
457.269	607.8
457.274	608
457.278	609.4
457.282	612.6
457.287	616.9
457.291	619.3
457.296	617.5
457.3	612.7
457.304	612.6
457.309	628.3
457.313	653.5
457.317	651.5
457.322	629.9
457.326	616
457.33	614.1
457.335	611
457.339	610.8
457.343	609.5
457.348	610.1
457.352	612
457.356	615.1
457.361	613.8
457.365	623.6
457.37	635.5
457.374	632.4
457.378	620.6
457.383	612
457.387	612.3
457.391	618
457.396	623.2
457.4	621.4
457.404	613.6
457.409	610.4
457.413	610.8
457.417	612.4
457.422	613.9
457.426	617.7
457.431	616.4
457.435	611.3
457.439	613.1
457.444	616.8
457.448	619.3
457.452	616.9
457.457	620.2
457.461	629.9
457.465	632.5
457.47	624.8
457.474	616.8
457.478	615.4
457.483	620.7
457.487	642.7
457.491	693.3
457.496	724.7
457.5	682.2
457.505	637.8
457.509	621.5
457.513	621.2
457.518	622.6
457.522	624.3
457.526	633.4
457.531	651.6
457.535	659.6
457.539	674.4
457.544	671.8
457.548	644.7
457.552	626.5
457.557	623.2
457.561	622.1
457.565	616.8
457.57	612.8
457.574	616.4
457.579	620.3
457.583	626.2
457.587	628
457.592	633.2
457.596	637.5
457.6	634.8
457.605	624.9
457.609	620.9
457.613	622.5
457.618	622.4
457.622	635.1
457.626	663.4
457.631	706.8
457.635	723.9
457.639	682
457.644	638.1
457.648	622.3
457.653	620.2
457.657	624.9
457.661	632.6
457.666	637.3
457.67	631.9
457.674	623.2
457.679	623.6
457.683	624.3
457.687	621.8
457.692	621.1
457.696	626.5
457.7	659.8
457.705	697.3
457.709	676
457.714	637.7
457.718	625
457.722	624.4
457.727	630.6
457.731	640.3
457.735	639.2
457.74	634.4
457.744	632.6
457.748	655.3
457.753	788.1
457.757	1127.6
457.761	1317.6
457.766	1027.1
457.77	728.7
457.774	641.7
457.779	627.1
457.783	632.6
457.787	646.7
457.792	654.2
457.796	643.8
457.801	634.4
457.805	630.1
457.809	629.9
457.814	629.4
457.818	630
457.822	634.1
457.827	636.1
457.831	644.4
457.835	656.5
457.84	677.6
457.844	731.3
457.848	939
457.853	2153.9
457.857	7220.5
457.861	13621.4
457.866	11112.1
457.87	3927.4
457.874	1211.2
457.879	821.4
457.883	768.5
457.888	805.5
457.892	1022.3
457.896	1242.8
457.901	1099.9
457.905	811.9
457.909	671.5
457.914	642.8
457.918	656.7
457.922	689.8
457.927	696.9
457.931	665.2
457.935	633.6
457.94	620.4
457.944	619.1
457.948	618.9
457.953	627.3
457.957	639.3
457.961	636.9
457.966	624.6
457.97	617.6
457.975	615.3
457.979	618.1
457.983	643.5
457.988	722.9
457.992	845.1
457.996	893.6
458.001	782.6
458.005	668.4
458.009	624.6
458.014	615.6
458.018	615.2
458.022	616.2
458.027	616.1
458.031	614.2
458.035	618.3
458.04	622.1
458.044	618.5
458.048	615
458.053	610.6
458.057	609.7
458.061	610.3
458.066	614.3
458.07	618.6
458.075	620.3
458.079	615.6
458.083	615.1
458.088	616.7
458.092	619.8
458.096	622.8
458.101	617.1
458.105	618.2
458.109	636.2
458.114	668
458.118	676.5
458.122	646.4
458.127	623.4
458.131	619.1
458.135	620.9
458.14	619.8
458.144	617.8
458.148	616.1
458.153	612.4
458.157	610.2
458.161	608.7
458.166	610.7
458.17	610.2
458.175	611.6
458.179	617.7
458.183	626.3
458.188	638.3
458.192	656.8
458.196	656.4
458.201	636.5
458.205	623.5
458.209	616.5
458.214	613.2
458.218	612
458.222	610.8
458.227	612.1
458.231	615
458.235	622.5
458.24	637.3
458.244	638.5
458.248	631.3
458.253	620
458.257	616.2
458.261	614.5
458.266	614.9
458.27	622.6
458.275	626.7
458.279	620.4
458.283	612.3
458.288	610.2
458.292	609.8
458.296	611.4
458.301	612
458.305	612.8
458.309	615.1
458.314	613.1
458.318	613.2
458.322	612
458.327	612
458.331	610.9
458.335	611.8
458.34	614.9
458.344	625.1
458.348	642.1
458.353	653.3
458.357	643.6
458.361	632.8
458.366	635.9
458.37	638.7
458.374	635.4
458.379	625.8
458.383	618.9
458.387	613.7
458.392	613.7
458.396	612.2
458.401	616.8
458.405	619.3
458.409	618.2
458.414	621.4
458.418	640.4
458.422	652.1
458.427	635.7
458.431	618.1
458.435	613.2
458.44	613.2
458.444	611.6
458.448	610.3
458.453	611.7
458.457	611.7
458.461	611.3
458.466	613.8
458.47	614.5
458.474	614.2
458.479	613
458.483	612
458.487	614
458.492	615.4
458.496	617.2
458.5	615.4
458.505	615.9
458.509	613.2
458.513	615
458.518	615.5
458.522	617.8
458.526	618.4
458.531	618.3
458.535	620.4
458.539	620.8
458.544	625
458.548	624.5
458.553	620.6
458.557	619.1
458.561	617.8
458.566	618.2
458.57	619.3
458.574	622.2
458.579	628.7
458.583	646.1
458.587	662.8
458.592	691.5
458.596	838
458.6	1533.1
458.605	3296.9
458.609	5042.2
458.613	4313.6
458.618	2223.9
458.622	1018
458.626	708.1
458.631	647.6
458.635	632.7
458.639	630.5
458.644	631.1
458.648	634.7
458.652	634.6
458.657	639
458.661	643.6
458.665	645.9
458.67	641.6
458.674	639.4
458.678	637.7
458.683	637.2
458.687	638
458.691	639.3
458.696	636.6
458.7	633.6
458.704	634.5
458.709	641.7
458.713	659.7
458.717	662.8
458.722	648.7
458.726	640.7
458.731	637.4
458.735	632.4
458.739	628.3
458.744	625.5
458.748	624.3
458.752	625
458.757	625.3
458.761	625.2
458.765	625.6
458.77	625.5
458.774	629.6
458.778	642.8
458.783	697.9
458.787	869.9
458.791	1289.7
458.796	1965.8
458.8	2293.2
458.804	1735.6
458.809	1021.2
458.813	753.8
458.817	774.5
458.822	873
458.826	868.1
458.83	772
458.835	706.4
458.839	673
458.843	653.2
458.848	669.4
458.852	713.8
458.856	716.3
458.861	674.1
458.865	646.5
458.869	641.4
458.874	648.3
458.878	656.7
458.882	666.9
458.887	679.1
458.891	707.5
458.895	765.5
458.9	1010
458.904	2587.6
458.908	9750.5
458.913	22106.6
458.917	22578
458.921	10337.9
458.926	2411.5
458.93	931.3
458.934	739.2
458.939	690.2
458.943	669.7
458.947	657.6
458.952	651.6
458.956	647.7
458.961	643.4
458.965	649.4
458.969	665.7
458.974	691.5
458.978	708.2
458.982	717.9
458.987	718.4
458.991	700.5
458.995	690.4
459	708.9
459.004	699.9
459.008	658.5
459.013	630
459.017	623.4
459.021	622.7
459.026	623.1
459.03	628.5
459.034	638.2
459.039	648.9
459.043	655.5
459.047	664
459.052	659.2
459.056	639.9
459.06	632.3
459.065	633.4
459.069	632.5
459.073	636.9
459.078	637
459.082	635.1
459.086	629.2
459.091	630.4
459.095	634.3
459.099	632.1
459.104	627.2
459.108	622.8
459.112	620.9
459.117	624.4
459.121	628.3
459.125	624.6
459.13	625.4
459.134	624.7
459.138	626.7
459.143	634.7
459.147	661.4
459.151	785.8
459.156	1383.3
459.16	3231.3
459.164	5582.4
459.169	5377.8
459.173	3149.8
459.177	2001.1
459.182	1931.1
459.186	1526.1
459.19	961.7
459.195	702.2
459.199	640
459.203	627.9
459.208	625.2
459.212	622.7
459.216	622.6
459.221	620.3
459.225	622
459.229	628.7
459.234	646.8
459.238	661.1
459.242	654.8
459.247	632.2
459.251	620.5
459.255	621
459.26	621.5
459.264	630.5
459.268	641.3
459.273	648.2
459.277	656.4
459.281	679.6
459.286	684.1
459.29	656.9
459.294	630.1
459.299	617.1
459.303	615.4
459.307	615.8
459.312	623.5
459.316	625.3
459.32	619.1
459.325	614.2
459.329	612.1
459.333	612.6
459.338	611
459.342	614.7
459.346	622.3
459.351	633.3
459.355	636.8
459.359	626.8
459.364	615.2
459.368	612.8
459.372	613.8
459.377	617.1
459.381	623.8
459.385	623.6
459.39	619
459.394	613.8
459.398	612.9
459.403	616.7
459.407	618.9
459.411	627.1
459.416	636.5
459.42	634.8
459.424	624.7
459.429	614.4
459.433	613.1
459.437	614.3
459.442	617
459.446	622
459.45	623.6
459.455	619.6
459.459	615.3
459.463	614.5
459.468	614.8
459.472	618.4
459.476	619.7
459.481	616.3
459.485	612.9
459.489	615.4
459.494	615
459.498	617.9
459.502	621.8
459.507	634.9
459.511	650.5
459.515	659.8
459.52	686
459.524	897.1
459.528	1567.2
459.533	2292.2
459.537	1932.8
459.541	1099.3
459.546	700.7
459.55	634.5
459.554	625.5
459.559	622
459.563	623.6
459.567	629.4
459.572	635
459.576	637.9
459.58	648.3
459.585	677.2
459.589	705.5
459.593	692.3
459.598	651.6
459.602	624.3
459.606	613.8
459.611	615.7
459.615	619.9
459.619	619.8
459.624	622.3
459.628	629.3
459.632	633.1
459.637	625.7
459.641	620.2
459.645	618.4
459.65	618.9
459.654	620.6
459.658	620.4
459.663	623.3
459.667	630.7
459.671	633.4
459.676	627.9
459.68	621.9
459.684	618.8
459.689	615.1
459.693	612.2
459.697	612.5
459.702	614.1
459.706	612.1
459.71	612.5
459.715	612.9
459.719	614.9
459.723	621
459.728	626.6
459.732	630.5
459.736	629.3
